* Measurement data measured by REW V5.20.13
* Source: Mikrofon (US-2x2 HR), MICROPHONE (Hauptlautstärke), L, volume: 0,500
* Format: 256k Log Swept Sine, 1 sweep at -12,0 dBFS with no timing reference
* Dated: 19.09.2023 20:29:33
* REW Settings:
*  C-weighting compensation: Off
*  Target level: 75.0 dB
* Note: 
* Measurement: Letshuoer Kinda Lava L
* Smoothing: 1/12 octave
* Frequency Step: 1/48 octave
* Start Frequency: 20.300 Hz
*
* Freq(Hz)	SPL(dB)	Phase(degrees)
20.299999	88.733	-177.7078
20.600000	88.729	-177.8606
20.900000	88.723	-178.1801
21.200001	88.724	-178.5227
21.400000	88.729	-178.7546
21.799999	88.745	-179.2385
22.000000	88.753	-179.4946
22.400000	88.761	179.9664
22.700001	88.755	179.5610
23.000000	88.740	179.1815
23.299999	88.719	178.8412
23.600000	88.697	178.5386
24.000000	88.671	178.1732
24.299999	88.657	177.9024
24.700001	88.646	177.5186
25.000000	88.640	177.2079
25.400000	88.631	176.7747
25.799999	88.616	176.3490
26.200001	88.596	175.9589
26.500000	88.579	175.6964
26.900000	88.556	175.3787
27.200001	88.542	175.1484
27.600000	88.525	174.8251
28.000000	88.511	174.4594
28.500000	88.492	173.9413
29.000000	88.469	173.4044
29.500000	88.447	172.9061
30.000000	88.435	172.4570
30.400000	88.434	172.1052
30.700001	88.435	171.8310
31.100000	88.435	171.4510
31.500000	88.426	171.0762
32.000000	88.403	170.6625
32.500000	88.372	170.3320
33.000000	88.340	170.0470
33.500000	88.311	169.7479
34.000000	88.281	169.4083
34.500000	88.246	169.0507
35.000000	88.208	168.7068
35.500000	88.170	168.3857
36.000000	88.133	168.0778
36.500000	88.096	167.7811
37.000000	88.060	167.5057
37.500000	88.031	167.2492
38.200001	88.009	166.8549
38.700001	88.001	166.4942
39.500000	87.975	165.8129
40.000000	87.942	165.4242
40.599998	87.893	165.0829
41.200001	87.849	164.8638
41.799999	87.819	164.6824
42.500000	87.797	164.4258
43.099998	87.782	164.1424
43.700001	87.765	163.8032
44.400002	87.733	163.3601
45.000000	87.691	162.9867
45.500000	87.649	162.7166
46.200001	87.588	162.4137
46.799999	87.541	162.1958
47.500000	87.493	161.9481
48.200001	87.450	161.6996
48.700001	87.423	161.5233
49.400002	87.391	161.2656
50.000000	87.370	161.0191
50.799999	87.343	160.6591
51.500000	87.316	160.3510
52.200001	87.285	160.0797
53.000000	87.249	159.8077
53.799999	87.215	159.5306
54.500000	87.184	159.2581
55.200001	87.150	158.9689
56.000000	87.103	158.6534
57.000000	87.042	158.3010
58.000000	86.985	157.9543
59.000000	86.933	157.5894
60.000000	86.879	157.2516
60.799999	86.832	157.0374
61.500000	86.791	156.8881
62.200001	86.751	156.7539
63.000000	86.708	156.5956
64.000000	86.659	156.3761
65.000000	86.613	156.1382
66.000000	86.563	155.9002
67.000000	86.508	155.6804
68.000000	86.448	155.4885
69.000000	86.387	155.3306
70.000000	86.326	155.1966
71.000000	86.267	155.0525
72.000000	86.210	154.8650
73.000000	86.158	154.6277
74.000000	86.114	154.3679
75.000000	86.077	154.1350
76.199997	86.034	153.9343
77.500000	85.977	153.7749
78.800003	85.912	153.5975
80.000000	85.857	153.4082
81.199997	85.808	153.2264
82.500000	85.757	153.0597
83.800003	85.704	152.9214
85.000000	85.653	152.8116
86.199997	85.598	152.7097
87.500000	85.532	152.5866
88.500000	85.478	152.4669
90.000000	85.401	152.2449
91.199997	85.346	152.0491
92.500000	85.294	151.8366
93.800003	85.248	151.6407
95.000000	85.212	151.4927
96.199997	85.178	151.3915
97.500000	85.141	151.3400
98.800003	85.097	151.3173
100.000000	85.047	151.2639
101.500000	84.982	151.1133
103.000000	84.927	150.9411
104.400002	84.882	150.8549
106.000000	84.823	150.8366
107.500000	84.759	150.7868
109.000000	84.702	150.6665
110.599998	84.653	150.5626
112.000000	84.608	150.5356
113.800003	84.540	150.4836
115.000000	84.498	150.4199
117.199997	84.430	150.3452
118.000000	84.405	150.3245
120.599998	84.325	150.2375
122.000000	84.284	150.1995
124.099998	84.223	150.1268
125.000000	84.199	150.1010
126.500000	84.158	150.0770
128.000000	84.115	150.0610
131.500000	84.021	150.0486
132.000000	84.007	150.0471
134.000000	83.955	150.0305
136.000000	83.904	150.0033
138.000000	83.854	149.9695
140.000000	83.803	149.9443
143.000000	83.726	149.9089
145.000000	83.676	149.8864
147.500000	83.616	149.8530
150.000000	83.555	149.8441
152.500000	83.494	149.8448
155.000000	83.438	149.8568
157.500000	83.385	149.8574
160.000000	83.334	149.8695
162.500000	83.283	149.8954
165.000000	83.232	149.9247
167.500000	83.176	149.9607
170.000000	83.122	150.0092
172.500000	83.076	150.0288
175.000000	83.030	150.0324
177.500000	82.982	150.0681
180.000000	82.936	150.1126
182.500000	82.889	150.1385
185.000000	82.841	150.1838
187.500000	82.799	150.2729
190.000000	82.770	150.3589
192.500000	82.747	150.3840
195.000000	82.720	150.3611
197.500000	82.682	150.3460
200.000000	82.637	150.3467
203.000000	82.582	150.3444
206.000000	82.532	150.3939
209.000000	82.489	150.5324
212.000000	82.450	150.7070
214.000000	82.422	150.8091
218.000000	82.358	150.9342
220.000000	82.322	150.9631
224.000000	82.259	150.9914
227.000000	82.230	151.0207
230.000000	82.208	151.1063
233.000000	82.183	151.2449
236.000000	82.153	151.3608
240.000000	82.112	151.4127
243.000000	82.084	151.4506
247.000000	82.039	151.5741
250.000000	82.003	151.6639
254.000000	81.963	151.7275
258.000000	81.926	151.7679
262.000000	81.882	151.8200
265.000000	81.847	151.8757
269.000000	81.805	151.9677
272.000000	81.779	152.0460
276.000000	81.749	152.1687
280.000000	81.722	152.3197
285.000000	81.689	152.5189
290.000000	81.658	152.6620
295.000000	81.633	152.7294
300.000000	81.611	152.7554
304.000000	81.589	152.7785
307.000000	81.571	152.8021
311.000000	81.544	152.8287
315.000000	81.517	152.8527
320.000000	81.482	152.9127
325.000000	81.450	152.9995
330.000000	81.422	153.0817
335.000000	81.395	153.1448
340.000000	81.366	153.1881
345.000000	81.336	153.2241
350.000000	81.305	153.2677
355.000000	81.273	153.3279
360.000000	81.242	153.4036
365.000000	81.211	153.4848
370.000000	81.181	153.5640
375.000000	81.153	153.6407
382.000000	81.113	153.7478
387.000000	81.086	153.8257
395.000000	81.041	153.9597
400.000000	81.014	154.0476
406.000000	80.983	154.1545
412.000000	80.953	154.2649
418.000000	80.924	154.3797
425.000000	80.893	154.5167
431.000000	80.867	154.6343
437.000000	80.842	154.7515
444.000000	80.813	154.8877
450.000000	80.789	155.0056
455.000000	80.770	155.1069
462.000000	80.746	155.2593
468.000000	80.726	155.3999
475.000000	80.705	155.5499
482.000000	80.684	155.6576
487.000000	80.666	155.7158
494.000000	80.639	155.8057
500.000000	80.617	155.9094
508.000000	80.592	156.0805
515.000000	80.572	156.2418
522.000000	80.550	156.3995
530.000000	80.522	156.5739
538.000000	80.494	156.7420
545.000000	80.472	156.8843
552.000000	80.452	157.0253
560.000000	80.430	157.1901
570.000000	80.403	157.4099
580.000000	80.376	157.6471
590.000000	80.352	157.8963
600.000000	80.329	158.1480
608.000000	80.311	158.3535
615.000000	80.295	158.5379
622.000000	80.281	158.7242
630.000000	80.265	158.9379
640.000000	80.247	159.2096
650.000000	80.230	159.4889
660.000000	80.215	159.7780
670.000000	80.200	160.0772
680.000000	80.187	160.3849
690.000000	80.175	160.6988
700.000000	80.164	161.0175
710.000000	80.156	161.3433
720.000000	80.150	161.6776
730.000000	80.146	162.0170
740.000000	80.143	162.3593
750.000000	80.141	162.7064
762.000000	80.143	163.1310
775.000000	80.149	163.6025
788.000000	80.159	164.0850
800.000000	80.171	164.5363
812.000000	80.186	164.9888
825.000000	80.206	165.4784
838.000000	80.230	165.9701
850.000000	80.257	166.4285
862.000000	80.288	166.8887
875.000000	80.326	167.3860
885.000000	80.358	167.7675
900.000000	80.412	168.3349
912.000000	80.460	168.7811
925.000000	80.516	169.2520
938.000000	80.576	169.7067
950.000000	80.635	170.1111
962.000000	80.698	170.5016
975.000000	80.769	170.9090
988.000000	80.843	171.2974
1000.000000	80.915	171.6376
1015.000000	81.008	172.0371
1030.000000	81.105	172.4050
1044.000000	81.200	172.7164
1060.000000	81.313	173.0314
1075.000000	81.423	173.2812
1090.000000	81.537	173.4747
1106.000000	81.659	173.6039
1120.000000	81.762	173.6483
1138.000000	81.885	173.6390
1150.000000	81.960	173.6195
1172.000000	82.090	173.6046
1180.000000	82.136	173.6068
1206.000000	82.286	173.6142
1220.000000	82.368	173.6047
1241.000000	82.490	173.5638
1250.000000	82.542	173.5367
1265.000000	82.628	173.4795
1280.000000	82.712	173.4084
1315.000000	82.901	173.1984
1320.000000	82.928	173.1641
1340.000000	83.031	173.0177
1360.000000	83.133	172.8596
1380.000000	83.231	172.6933
1400.000000	83.327	172.5214
1430.000000	83.466	172.2559
1450.000000	83.555	172.0755
1475.000000	83.663	171.8477
1500.000000	83.768	171.6177
1525.000000	83.871	171.3893
1550.000000	83.971	171.1670
1575.000000	84.067	170.9509
1600.000000	84.159	170.7458
1625.000000	84.247	170.5684
1650.000000	84.334	170.4398
1675.000000	84.422	170.3798
1700.000000	84.520	170.3898
1725.000000	84.636	170.4294
1750.000000	84.769	170.4247
1775.000000	84.913	170.3145
1800.000000	85.058	170.0865
1825.000000	85.196	169.7699
1850.000000	85.327	169.4044
1875.000000	85.451	169.0184
1900.000000	85.570	168.6253
1925.000000	85.686	168.2278
1950.000000	85.801	167.8240
1975.000000	85.914	167.4114
2000.000000	86.027	166.9868
2030.000000	86.160	166.4564
2060.000000	86.293	165.8991
2090.000000	86.423	165.3123
2120.000000	86.551	164.6946
2140.000000	86.635	164.2651
2180.000000	86.800	163.3610
2200.000000	86.880	162.8856
2240.000000	87.035	161.8865
2270.000000	87.146	161.0959
2300.000000	87.252	160.2716
2330.000000	87.352	159.4160
2360.000000	87.444	158.5316
2400.000000	87.556	157.3148
2430.000000	87.630	156.3818
2470.000000	87.715	155.1226
2500.000000	87.768	154.1756
2540.000000	87.825	152.9249
2580.000000	87.869	151.7039
2620.000000	87.900	150.5215
2650.000000	87.918	149.6610
2690.000000	87.935	148.5469
2720.000000	87.943	147.7330
2760.000000	87.950	146.6691
2800.000000	87.953	145.6202
2850.000000	87.948	144.3167
2900.000000	87.932	143.0171
2950.000000	87.901	141.7413
3000.000000	87.857	140.5190
3040.000000	87.814	139.5844
3070.000000	87.779	138.9023
3110.000000	87.729	138.0074
3150.000000	87.673	137.1219
3200.000000	87.593	136.0312
3250.000000	87.499	134.9758
3300.000000	87.391	133.9767
3350.000000	87.270	133.0502
3400.000000	87.135	132.2097
3450.000000	86.987	131.4732
3500.000000	86.830	130.8632
3550.000000	86.666	130.3987
3600.000000	86.502	130.0840
3650.000000	86.343	129.9030
3700.000000	86.194	129.8242
3750.000000	86.054	129.8138
3820.000000	85.873	129.8712
3870.000000	85.749	129.9535
3950.000000	85.560	130.1683
4000.000000	85.447	130.3660
4060.000000	85.319	130.6749
4120.000000	85.201	131.0593
4180.000000	85.096	131.5077
4250.000000	84.994	132.0871
4310.000000	84.926	132.6054
4370.000000	84.878	133.1163
4440.000000	84.848	133.6666
4500.000000	84.843	134.0632
4550.000000	84.853	134.3140
4620.000000	84.884	134.5031
4680.000000	84.923	134.4814
4750.000000	84.973	134.2046
4820.000000	85.020	133.6270
4870.000000	85.042	133.0225
4940.000000	85.048	131.9165
5000.000000	85.018	130.7607
5080.000000	84.910	129.0333
5150.000000	84.745	127.5039
5220.000000	84.515	126.1292
5300.000000	84.190	124.9118
5380.000000	83.828	124.1423
5450.000000	83.500	123.8057
5520.000000	83.174	123.7160
5600.000000	82.807	123.8410
5700.000000	82.353	124.2990
5800.000000	81.903	125.1220
5900.000000	81.468	126.3165
6000.000000	81.057	127.8502
6080.000000	80.751	129.2932
6150.000000	80.501	130.6965
6220.000000	80.271	132.2192
6300.000000	80.032	134.0928
6400.000000	79.774	136.6139
6500.000000	79.565	139.3044
6600.000000	79.408	142.1271
6700.000000	79.308	145.0399
6800.000000	79.266	147.9941
6900.000000	79.283	150.9390
7000.000000	79.356	153.8334
7100.000000	79.484	156.6497
7200.000000	79.666	159.3642
7300.000000	79.904	161.9498
7400.000000	80.199	164.3738
7500.000000	80.554	166.5892
7620.000000	81.064	168.8688
7750.000000	81.717	170.6709
7880.000000	82.454	171.4867
8000.000000	83.166	171.0652
8120.000000	83.847	169.2637
8250.000000	84.454	165.6454
8380.000000	84.826	160.5639
8500.000000	84.898	155.2408
8620.000000	84.698	150.1853
8750.000000	84.225	145.8676
8850.000000	83.739	143.6367
9000.000000	82.914	142.0112
9120.000000	82.226	142.0076
9250.000000	81.490	143.1429
9380.000000	80.794	145.3237
9500.000000	80.215	148.1176
9620.000000	79.712	151.5091
9750.000000	79.268	155.6959
9880.000000	78.936	160.2650
10000.000000	78.732	164.7065
10150.000000	78.620	170.4147
10300.000000	78.671	176.1339
10440.000000	78.874	-178.6852
10600.000000	79.299	-173.2048
10750.000000	79.881	-168.8427
10900.000000	80.608	-165.7187
11060.000000	81.444	-164.4147
11200.000000	82.090	-165.4125
11380.000000	82.587	-169.2564
11500.000000	82.653	-172.4658
11720.000000	82.381	-177.5665
11800.000000	82.212	-179.1431
12060.000000	81.392	176.4803
12200.000000	80.738	175.2351
12410.000000	79.563	175.8225
12500.000000	79.039	176.9821
12650.000000	78.207	179.8862
12800.000000	77.484	-176.3691
13150.000000	76.350	-166.5970
13200.000000	76.243	-165.2373
13400.000000	75.907	-160.0732
13600.000000	75.659	-155.3040
13800.000000	75.458	-150.7408
14000.000000	75.305	-146.2133
14300.000000	75.220	-139.4862
14500.000000	75.287	-135.3195
14750.000000	75.499	-131.0497
15000.000000	75.761	-128.4350
15250.000000	75.913	-127.6809
15500.000000	75.809	-128.1400
15750.000000	75.403	-128.5832
16000.000000	74.763	-128.0992
16250.000000	73.991	-126.5936
16500.000000	73.141	-124.3437
16750.000000	72.201	-121.3516
17000.000000	71.169	-117.3350
17250.000000	70.083	-112.0980
17500.000000	69.015	-105.7233
17750.000000	68.041	-98.5354
18000.000000	67.226	-91.0116
18250.000000	66.612	-83.7215
18500.000000	66.208	-77.2924
18750.000000	65.982	-72.3752
19000.000000	65.856	-69.5453
19250.000000	65.716	-69.0658
19500.000000	65.472	-70.5648
19750.000000	65.135	-72.9233
