* Measurement data measured by REW V5.30 beta 4
* Source: Mikrofon (US-2x2 HR), MICROPHONE (Hauptlautstärke), L, volume: 0,250
* Format: 256k Log Swept Sine, 1 sweep at -8,0 dBFS with no timing reference
* Dated: 17.12.2023 18:47:08
* REW Settings:
*  C-weighting compensation: Off
*  Target level: 75.0 dB
* Note: 
* Measurement: Moondrop Aria 2 R
* Smoothing: 1/12 octave
* Frequency Step: 1/48 octave
* Start Frequency: 20.300 Hz
*
* Freq(Hz)	SPL(dB)	Phase(degrees)
20.299999	76.564	-142.9670
20.600000	76.576	-143.3619
20.900000	76.593	-143.8631
21.200001	76.612	-144.3916
21.400000	76.626	-144.7467
21.799999	76.657	-145.4618
22.000000	76.674	-145.8230
22.400000	76.707	-146.5514
22.700001	76.731	-147.0988
23.000000	76.754	-147.6432
23.299999	76.776	-148.1823
23.600000	76.798	-148.7150
24.000000	76.824	-149.4128
24.299999	76.842	-149.9226
24.700001	76.863	-150.5753
25.000000	76.878	-151.0396
25.400000	76.897	-151.6240
25.799999	76.916	-152.1770
26.200001	76.934	-152.7126
26.500000	76.948	-153.1109
26.900000	76.965	-153.6433
27.200001	76.978	-154.0447
27.600000	76.995	-154.5817
28.000000	77.012	-155.1182
28.500000	77.035	-155.7826
29.000000	77.057	-156.4310
29.500000	77.078	-157.0530
30.000000	77.096	-157.6458
30.400000	77.108	-158.1032
30.700001	77.115	-158.4398
31.100000	77.123	-158.8832
31.500000	77.130	-159.3217
32.000000	77.138	-159.8628
32.500000	77.146	-160.3958
33.000000	77.155	-160.9193
33.500000	77.162	-161.4278
34.000000	77.167	-161.9138
34.500000	77.173	-162.3769
35.000000	77.181	-162.8285
35.500000	77.190	-163.2835
36.000000	77.199	-163.7465
36.500000	77.206	-164.2080
37.000000	77.211	-164.6556
37.500000	77.216	-165.0864
38.200001	77.222	-165.6729
38.700001	77.225	-166.0847
39.500000	77.226	-166.7192
40.000000	77.225	-167.0946
40.599998	77.226	-167.5303
41.200001	77.227	-167.9631
41.799999	77.229	-168.3999
42.500000	77.229	-168.9073
43.099998	77.228	-169.3288
43.700001	77.227	-169.7358
44.400002	77.228	-170.2058
45.000000	77.228	-170.6136
45.500000	77.227	-170.9525
46.200001	77.222	-171.4095
46.799999	77.216	-171.7789
47.500000	77.209	-172.1936
48.200001	77.203	-172.6075
48.700001	77.198	-172.9074
49.400002	77.192	-173.3290
50.000000	77.187	-173.6848
50.799999	77.180	-174.1462
51.500000	77.174	-174.5408
52.200001	77.166	-174.9245
53.000000	77.158	-175.3388
53.799999	77.151	-175.7295
54.500000	77.146	-176.0687
55.200001	77.139	-176.4159
56.000000	77.126	-176.8181
57.000000	77.108	-177.3147
58.000000	77.092	-177.7972
59.000000	77.078	-178.2569
60.000000	77.063	-178.6962
60.799999	77.051	-179.0388
61.500000	77.041	-179.3305
62.200001	77.030	-179.6146
63.000000	77.018	-179.9371
64.000000	77.001	179.6523
65.000000	76.983	179.2363
66.000000	76.965	178.8301
67.000000	76.948	178.4454
68.000000	76.930	178.0750
69.000000	76.912	177.7037
70.000000	76.892	177.3303
71.000000	76.872	176.9633
72.000000	76.851	176.6087
73.000000	76.831	176.2656
74.000000	76.810	175.9304
75.000000	76.789	175.6044
76.199997	76.763	175.2252
77.500000	76.734	174.8218
78.800003	76.704	174.4164
80.000000	76.676	174.0454
81.199997	76.649	173.6914
82.500000	76.621	173.3231
83.800003	76.593	172.9565
85.000000	76.564	172.6264
86.199997	76.536	172.3111
87.500000	76.506	171.9763
88.500000	76.483	171.7212
90.000000	76.448	171.3462
91.199997	76.419	171.0527
92.500000	76.387	170.7410
93.800003	76.356	170.4364
95.000000	76.327	170.1631
96.199997	76.299	169.8980
97.500000	76.271	169.6168
98.800003	76.245	169.3426
100.000000	76.218	169.0991
101.500000	76.178	168.8064
103.000000	76.136	168.5132
104.400002	76.098	168.2382
106.000000	76.057	167.9263
107.500000	76.018	167.6382
109.000000	75.979	167.3652
110.599998	75.938	167.0925
112.000000	75.902	166.8632
113.800003	75.856	166.5775
115.000000	75.824	166.3917
117.199997	75.768	166.0618
118.000000	75.747	165.9448
120.599998	75.680	165.5725
122.000000	75.643	165.3793
124.099998	75.590	165.0980
125.000000	75.567	164.9775
126.500000	75.529	164.7761
128.000000	75.491	164.5797
131.500000	75.403	164.1683
132.000000	75.390	164.1130
134.000000	75.340	163.8946
136.000000	75.289	163.6823
138.000000	75.239	163.4761
140.000000	75.191	163.2732
143.000000	75.120	162.9797
145.000000	75.071	162.8049
147.500000	75.007	162.6096
150.000000	74.944	162.4181
152.500000	74.882	162.2229
155.000000	74.822	162.0374
157.500000	74.762	161.8672
160.000000	74.702	161.7100
162.500000	74.642	161.5594
165.000000	74.583	161.4078
167.500000	74.525	161.2612
170.000000	74.468	161.1329
172.500000	74.410	161.0237
175.000000	74.353	160.9246
177.500000	74.296	160.8289
180.000000	74.241	160.7381
182.500000	74.185	160.6523
185.000000	74.130	160.5715
187.500000	74.076	160.4975
190.000000	74.020	160.4315
192.500000	73.965	160.3723
195.000000	73.910	160.3159
197.500000	73.857	160.2605
200.000000	73.805	160.2154
203.000000	73.743	160.1743
206.000000	73.681	160.1340
209.000000	73.620	160.1010
212.000000	73.560	160.0816
214.000000	73.521	160.0746
218.000000	73.444	160.0693
220.000000	73.406	160.0711
224.000000	73.329	160.0817
227.000000	73.272	160.0977
230.000000	73.216	160.1203
233.000000	73.162	160.1436
236.000000	73.109	160.1693
240.000000	73.038	160.2163
243.000000	72.984	160.2621
247.000000	72.913	160.3333
250.000000	72.861	160.3903
254.000000	72.793	160.4655
258.000000	72.728	160.5388
262.000000	72.665	160.6178
265.000000	72.618	160.6864
269.000000	72.554	160.7865
272.000000	72.507	160.8649
276.000000	72.446	160.9727
280.000000	72.386	161.0847
285.000000	72.314	161.2369
290.000000	72.243	161.4003
295.000000	72.174	161.5667
300.000000	72.105	161.7415
304.000000	72.050	161.8953
307.000000	72.009	162.0178
311.000000	71.957	162.1867
315.000000	71.905	162.3574
320.000000	71.842	162.5721
325.000000	71.780	162.7861
330.000000	71.720	162.9973
335.000000	71.662	163.2092
340.000000	71.605	163.4256
345.000000	71.550	163.6520
350.000000	71.496	163.8911
355.000000	71.442	164.1326
360.000000	71.388	164.3707
365.000000	71.336	164.6104
370.000000	71.285	164.8562
375.000000	71.236	165.1084
382.000000	71.169	165.4688
387.000000	71.123	165.7273
395.000000	71.051	166.1405
400.000000	71.007	166.4014
406.000000	70.955	166.7195
412.000000	70.905	167.0403
418.000000	70.857	167.3641
425.000000	70.802	167.7440
431.000000	70.757	168.0717
437.000000	70.713	168.4056
444.000000	70.663	168.7966
450.000000	70.621	169.1314
455.000000	70.587	169.4120
462.000000	70.541	169.8046
468.000000	70.502	170.1428
475.000000	70.459	170.5463
482.000000	70.417	170.9584
487.000000	70.388	171.2547
494.000000	70.348	171.6687
500.000000	70.316	172.0204
508.000000	70.275	172.4864
515.000000	70.240	172.8949
522.000000	70.206	173.3076
530.000000	70.168	173.7858
538.000000	70.132	174.2700
545.000000	70.102	174.6997
552.000000	70.072	175.1327
560.000000	70.040	175.6267
570.000000	70.003	176.2474
580.000000	69.968	176.8713
590.000000	69.934	177.4883
600.000000	69.903	178.1034
608.000000	69.881	178.6070
615.000000	69.862	179.0549
622.000000	69.845	179.5042
630.000000	69.826	-179.9829
640.000000	69.803	-179.3419
650.000000	69.785	-178.7020
660.000000	69.770	-178.0664
670.000000	69.755	-177.4239
680.000000	69.741	-176.7677
690.000000	69.729	-176.1059
700.000000	69.720	-175.4443
710.000000	69.715	-174.7827
720.000000	69.712	-174.1201
730.000000	69.711	-173.4545
740.000000	69.712	-172.7850
750.000000	69.715	-172.1115
762.000000	69.722	-171.2934
775.000000	69.734	-170.3970
788.000000	69.751	-169.4997
800.000000	69.772	-168.6696
812.000000	69.796	-167.8368
825.000000	69.828	-166.9382
838.000000	69.865	-166.0399
850.000000	69.903	-165.2167
862.000000	69.946	-164.4017
875.000000	69.997	-163.5222
885.000000	70.042	-162.8511
900.000000	70.115	-161.8649
912.000000	70.178	-161.0989
925.000000	70.251	-160.2921
938.000000	70.328	-159.5063
950.000000	70.404	-158.7954
962.000000	70.483	-158.0984
975.000000	70.573	-157.3661
988.000000	70.666	-156.6642
1000.000000	70.755	-156.0444
1015.000000	70.870	-155.3075
1030.000000	70.987	-154.6137
1044.000000	71.100	-154.0039
1060.000000	71.231	-153.3497
1075.000000	71.356	-152.7770
1090.000000	71.483	-152.2435
1106.000000	71.618	-151.7158
1120.000000	71.736	-151.2873
1138.000000	71.886	-150.7840
1150.000000	71.986	-150.4777
1172.000000	72.167	-149.9659
1180.000000	72.233	-149.7940
1206.000000	72.445	-149.2859
1220.000000	72.558	-149.0405
1241.000000	72.725	-148.7069
1250.000000	72.795	-148.5767
1265.000000	72.912	-148.3757
1280.000000	73.027	-148.1920
1315.000000	73.290	-147.8296
1320.000000	73.327	-147.7847
1340.000000	73.473	-147.6169
1360.000000	73.616	-147.4659
1380.000000	73.758	-147.3323
1400.000000	73.897	-147.2185
1430.000000	74.100	-147.0863
1450.000000	74.232	-147.0160
1475.000000	74.394	-146.9389
1500.000000	74.554	-146.8733
1525.000000	74.711	-146.8204
1550.000000	74.866	-146.7813
1575.000000	75.020	-146.7565
1600.000000	75.173	-146.7453
1625.000000	75.326	-146.7461
1650.000000	75.478	-146.7593
1675.000000	75.629	-146.7890
1700.000000	75.780	-146.8332
1725.000000	75.929	-146.8888
1750.000000	76.079	-146.9594
1775.000000	76.229	-147.0493
1800.000000	76.379	-147.1588
1825.000000	76.529	-147.2883
1850.000000	76.679	-147.4409
1875.000000	76.829	-147.6188
1900.000000	76.979	-147.8229
1925.000000	77.128	-148.0550
1950.000000	77.276	-148.3190
1975.000000	77.423	-148.6165
2000.000000	77.568	-148.9463
2030.000000	77.740	-149.3827
2060.000000	77.908	-149.8620
2090.000000	78.072	-150.3838
2120.000000	78.232	-150.9499
2140.000000	78.336	-151.3525
2180.000000	78.537	-152.2148
2200.000000	78.633	-152.6731
2240.000000	78.818	-153.6439
2270.000000	78.948	-154.4176
2300.000000	79.070	-155.2256
2330.000000	79.183	-156.0641
2360.000000	79.288	-156.9293
2400.000000	79.413	-158.1146
2430.000000	79.495	-159.0193
2470.000000	79.591	-160.2393
2500.000000	79.651	-161.1569
2540.000000	79.717	-162.3716
2580.000000	79.768	-163.5715
2620.000000	79.803	-164.7504
2650.000000	79.819	-165.6117
2690.000000	79.828	-166.7169
2720.000000	79.827	-167.5101
2760.000000	79.815	-168.5204
2800.000000	79.795	-169.4760
2850.000000	79.756	-170.5856
2900.000000	79.705	-171.5884
2950.000000	79.647	-172.4838
3000.000000	79.585	-173.2811
3040.000000	79.533	-173.8554
3070.000000	79.494	-174.2522
3110.000000	79.441	-174.7382
3150.000000	79.388	-175.1761
3200.000000	79.321	-175.6576
3250.000000	79.257	-176.0687
3300.000000	79.198	-176.4188
3350.000000	79.145	-176.7236
3400.000000	79.099	-177.0010
3450.000000	79.059	-177.2610
3500.000000	79.025	-177.5054
3550.000000	78.998	-177.7438
3600.000000	78.977	-177.9866
3650.000000	78.964	-178.2413
3700.000000	78.957	-178.5227
3750.000000	78.957	-178.8460
3820.000000	78.964	-179.3771
3870.000000	78.973	-179.8167
3950.000000	78.993	179.3545
4000.000000	79.008	178.7470
4060.000000	79.024	177.9177
4120.000000	79.036	176.9765
4180.000000	79.041	175.9262
4250.000000	79.034	174.5678
4310.000000	79.013	173.2968
4370.000000	78.977	171.9411
4440.000000	78.911	170.2738
4500.000000	78.831	168.7895
4550.000000	78.748	167.5303
4620.000000	78.605	165.7641
4680.000000	78.459	164.2731
4750.000000	78.261	162.5904
4820.000000	78.034	161.0027
4870.000000	77.858	159.9453
4940.000000	77.592	158.5952
5000.000000	77.350	157.5719
5080.000000	77.013	156.4096
5150.000000	76.709	155.5886
5220.000000	76.400	154.9551
5300.000000	76.047	154.4621
5380.000000	75.697	154.2116
5450.000000	75.399	154.1806
5520.000000	75.111	154.3135
5600.000000	74.796	154.6541
5700.000000	74.432	155.3450
5800.000000	74.102	156.3013
5900.000000	73.813	157.4827
6000.000000	73.565	158.8538
6080.000000	73.399	160.0687
6150.000000	73.279	161.2023
6220.000000	73.183	162.3882
6300.000000	73.102	163.7911
6400.000000	73.046	165.5905
6500.000000	73.042	167.4084
6600.000000	73.093	169.2113
6700.000000	73.200	170.9573
6800.000000	73.366	172.5914
6900.000000	73.592	174.0475
7000.000000	73.880	175.2452
7100.000000	74.228	176.0862
7200.000000	74.633	176.4510
7300.000000	75.085	176.2051
7400.000000	75.562	175.2159
7500.000000	76.039	173.3758
7620.000000	76.557	169.9718
7750.000000	76.973	164.8874
7880.000000	77.152	158.6987
8000.000000	77.056	152.5401
8120.000000	76.699	146.5482
8250.000000	76.052	140.8561
8380.000000	75.204	136.4408
8500.000000	74.317	133.6609
8620.000000	73.392	132.0966
8750.000000	72.401	131.6102
8850.000000	71.672	131.9469
9000.000000	70.656	133.3560
9120.000000	69.920	135.0724
9250.000000	69.202	137.3528
9380.000000	68.566	139.9413
9500.000000	68.048	142.5114
9620.000000	67.591	145.1883
9750.000000	67.160	148.1591
9880.000000	66.788	151.1666
10000.000000	66.495	153.9460
10150.000000	66.192	157.3878
10300.000000	65.953	160.7573
10440.000000	65.784	163.7983
10600.000000	65.647	167.0950
10750.000000	65.564	169.9709
10900.000000	65.515	172.6112
11060.000000	65.489	175.1490
11200.000000	65.478	177.1396
11380.000000	65.465	179.4293
11500.000000	65.449	-179.1782
11720.000000	65.396	-176.8103
11800.000000	65.368	-175.9779
12060.000000	65.249	-173.2091
12200.000000	65.180	-171.6121
12410.000000	65.097	-169.0432
12500.000000	65.078	-167.8969
12650.000000	65.079	-165.9929
12800.000000	65.127	-164.2163
13150.000000	65.382	-161.4608
13200.000000	65.426	-161.2906
13400.000000	65.575	-161.1949
13600.000000	65.647	-161.8588
13800.000000	65.609	-162.9332
14000.000000	65.459	-164.0331
14300.000000	65.085	-165.0566
14500.000000	64.798	-165.0797
14750.000000	64.473	-164.3427
15000.000000	64.250	-162.9652
15250.000000	64.172	-161.3638
15500.000000	64.244	-160.0704
15750.000000	64.427	-159.6133
16000.000000	64.638	-160.3581
16250.000000	64.774	-162.4299
16500.000000	64.728	-165.7237
16750.000000	64.383	-169.8612
17000.000000	63.603	-173.7488
17250.000000	62.293	-174.1160
17500.000000	60.767	-165.5404
17750.000000	59.848	-151.9735
18000.000000	59.626	-143.3949
18250.000000	59.585	-139.0345
18500.000000	59.498	-136.0338
18750.000000	59.373	-133.3367
19000.000000	59.272	-130.9156
19250.000000	59.240	-129.0974
19500.000000	59.279	-128.1671
19750.000000	59.347	-128.0322
