* Measurement data measured by REW V5.30 beta 4
* Source: Mikrofon (US-2x2 HR), no input selected, L, volume: no control
* Format: 256k Log Swept Sine, 1 sweep at -8,0 dBFS with no timing reference
* Dated: 12.12.2023 20:11:33
* REW Settings:
*  C-weighting compensation: Off
*  Target level: 75.0 dB
* Note: 
* Measurement: Rickdiculous Bass Target
* Smoothing: 1/12 octave
* Frequency Step: 1/48 octave
* Start Frequency: 20.300 Hz
*
* Freq(Hz)	SPL(dB)	Phase(degrees)
20.299999	91.442	-157.6734
20.600000	91.488	-158.7396
20.900000	91.544	-160.1282
21.200001	91.599	-161.6251
21.400000	91.633	-162.6377
21.799999	91.691	-164.6545
22.000000	91.716	-165.6494
22.400000	91.759	-167.5979
22.700001	91.785	-169.0156
23.000000	91.806	-170.3926
23.299999	91.824	-171.7298
23.600000	91.838	-173.0312
24.000000	91.851	-174.7210
24.299999	91.857	-175.9621
24.700001	91.859	-177.5918
25.000000	91.857	-178.8007
25.400000	91.849	179.5994
25.799999	91.836	178.0090
26.200001	91.819	176.4274
26.500000	91.804	175.2484
26.900000	91.782	173.6897
27.200001	91.765	172.5334
27.600000	91.741	171.0116
28.000000	91.716	169.5143
28.500000	91.680	167.6785
29.000000	91.637	165.8848
29.500000	91.584	164.1346
30.000000	91.522	162.4251
30.400000	91.465	161.0819
30.700001	91.421	160.0859
31.100000	91.358	158.7709
31.500000	91.294	157.4713
32.000000	91.210	155.8741
32.500000	91.122	154.3157
33.000000	91.029	152.8033
33.500000	90.930	151.3390
34.000000	90.825	149.9209
34.500000	90.715	148.5446
35.000000	90.601	147.2053
35.500000	90.486	145.8994
36.000000	90.369	144.6273
36.500000	90.250	143.3933
37.000000	90.129	142.2038
37.500000	90.005	141.0624
38.200001	89.828	139.5406
38.700001	89.699	138.4983
39.500000	89.489	136.8887
40.000000	89.356	135.9155
40.599998	89.196	134.7845
41.200001	89.036	133.7010
41.799999	88.875	132.6725
42.500000	88.688	131.5464
43.099998	88.528	130.6378
43.700001	88.370	129.7666
44.400002	88.186	128.7810
45.000000	88.029	127.9611
45.500000	87.897	127.3011
46.200001	87.712	126.4205
46.799999	87.555	125.7074
47.500000	87.373	124.9175
48.200001	87.193	124.1624
48.700001	87.066	123.6417
49.400002	86.890	122.9439
50.000000	86.741	122.3819
50.799999	86.547	121.6839
51.500000	86.380	121.1126
52.200001	86.215	120.5732
53.000000	86.027	119.9877
53.799999	85.841	119.4189
54.500000	85.679	118.9357
55.200001	85.518	118.4849
56.000000	85.336	118.0284
57.000000	85.116	117.5347
58.000000	84.901	117.0786
59.000000	84.689	116.6292
60.000000	84.480	116.2004
60.799999	84.317	115.8871
61.500000	84.176	115.6354
62.200001	84.037	115.4008
63.000000	83.879	115.1499
64.000000	83.684	114.8610
65.000000	83.495	114.5949
66.000000	83.311	114.3474
67.000000	83.130	114.1193
68.000000	82.952	113.9116
69.000000	82.776	113.7263
70.000000	82.603	113.5656
71.000000	82.435	113.4301
72.000000	82.270	113.3207
73.000000	82.109	113.2371
74.000000	81.950	113.1713
75.000000	81.793	113.1085
76.199997	81.608	113.0317
77.500000	81.414	112.9606
78.800003	81.224	112.9080
80.000000	81.052	112.8778
81.199997	80.884	112.8732
82.500000	80.707	112.9006
83.800003	80.534	112.9412
85.000000	80.376	112.9749
86.199997	80.223	113.0149
87.500000	80.060	113.0774
88.500000	79.938	113.1388
90.000000	79.759	113.2470
91.199997	79.619	113.3447
92.500000	79.471	113.4641
93.800003	79.325	113.5955
95.000000	79.194	113.7202
96.199997	79.063	113.8437
97.500000	78.922	113.9756
98.800003	78.781	114.1090
100.000000	78.653	114.2465
101.500000	78.505	114.4354
103.000000	78.364	114.6296
104.400002	78.238	114.8158
106.000000	78.095	115.0308
107.500000	77.963	115.2425
109.000000	77.830	115.4642
110.599998	77.689	115.7033
112.000000	77.568	115.9152
113.800003	77.417	116.1942
115.000000	77.320	116.3852
117.199997	77.146	116.7394
118.000000	77.084	116.8672
120.599998	76.889	117.2699
122.000000	76.788	117.4812
124.099998	76.637	117.7966
125.000000	76.573	117.9330
126.500000	76.466	118.1658
128.000000	76.362	118.4073
131.500000	76.128	118.9722
132.000000	76.095	119.0518
134.000000	75.971	119.3696
136.000000	75.852	119.6923
138.000000	75.734	120.0144
140.000000	75.618	120.3285
143.000000	75.447	120.8089
145.000000	75.336	121.1381
147.500000	75.201	121.5468
150.000000	75.068	121.9367
152.500000	74.939	122.3163
155.000000	74.815	122.6968
157.500000	74.694	123.0922
160.000000	74.574	123.4983
162.500000	74.456	123.9007
165.000000	74.342	124.2920
167.500000	74.232	124.6699
170.000000	74.124	125.0399
172.500000	74.019	125.4062
175.000000	73.917	125.7707
177.500000	73.817	126.1373
180.000000	73.717	126.5063
182.500000	73.619	126.8817
185.000000	73.523	127.2628
187.500000	73.429	127.6426
190.000000	73.337	128.0100
192.500000	73.246	128.3663
195.000000	73.158	128.7158
197.500000	73.071	129.0644
200.000000	72.985	129.4122
203.000000	72.882	129.8225
206.000000	72.780	130.2366
209.000000	72.682	130.6609
212.000000	72.586	131.0904
214.000000	72.522	131.3770
218.000000	72.394	131.9454
220.000000	72.332	132.2270
224.000000	72.208	132.7877
227.000000	72.118	133.2015
230.000000	72.030	133.6067
233.000000	71.944	134.0081
236.000000	71.860	134.4182
240.000000	71.751	134.9923
243.000000	71.670	135.4346
247.000000	71.563	136.0233
250.000000	71.484	136.4625
254.000000	71.380	137.0461
258.000000	71.280	137.6296
262.000000	71.183	138.2216
265.000000	71.113	138.6685
269.000000	71.019	139.2580
272.000000	70.950	139.6958
276.000000	70.859	140.2821
280.000000	70.772	140.8802
285.000000	70.667	141.6427
290.000000	70.567	142.4103
295.000000	70.468	143.1941
300.000000	70.371	143.9960
304.000000	70.299	144.6489
307.000000	70.248	145.1372
311.000000	70.185	145.7823
315.000000	70.125	146.4233
320.000000	70.052	147.2229
325.000000	69.981	148.0244
330.000000	69.912	148.8207
335.000000	69.847	149.6193
340.000000	69.787	150.4251
345.000000	69.732	151.2245
350.000000	69.683	152.0013
355.000000	69.640	152.7564
360.000000	69.601	153.5024
365.000000	69.565	154.2435
370.000000	69.533	154.9823
375.000000	69.503	155.7155
382.000000	69.466	156.7202
387.000000	69.444	157.4174
395.000000	69.415	158.5108
400.000000	69.400	159.1776
406.000000	69.384	159.9511
412.000000	69.369	160.7033
418.000000	69.356	161.4456
425.000000	69.343	162.2974
431.000000	69.335	163.0128
437.000000	69.330	163.7076
444.000000	69.326	164.4862
450.000000	69.325	165.1284
455.000000	69.325	165.6520
462.000000	69.327	166.3699
468.000000	69.329	166.9708
475.000000	69.332	167.6652
482.000000	69.336	168.3588
487.000000	69.341	168.8546
494.000000	69.352	169.5420
500.000000	69.363	170.1094
508.000000	69.382	170.8174
515.000000	69.400	171.3988
522.000000	69.417	171.9569
530.000000	69.436	172.5736
538.000000	69.453	173.1760
545.000000	69.466	173.6974
552.000000	69.480	174.2117
560.000000	69.494	174.7882
570.000000	69.513	175.4949
580.000000	69.532	176.1890
590.000000	69.553	176.8681
600.000000	69.575	177.5446
608.000000	69.592	178.0881
615.000000	69.607	178.5591
622.000000	69.623	179.0247
630.000000	69.641	179.5557
640.000000	69.664	-179.7786
650.000000	69.689	-179.1137
660.000000	69.716	-178.4569
670.000000	69.745	-177.8049
680.000000	69.775	-177.1525
690.000000	69.807	-176.5018
700.000000	69.841	-175.8540
710.000000	69.878	-175.2100
720.000000	69.917	-174.5718
730.000000	69.959	-173.9375
740.000000	70.003	-173.3088
750.000000	70.051	-172.6865
762.000000	70.112	-171.9538
775.000000	70.182	-171.1826
788.000000	70.258	-170.4300
800.000000	70.333	-169.7477
812.000000	70.412	-169.0849
825.000000	70.501	-168.3997
838.000000	70.594	-167.7494
850.000000	70.684	-167.1817
862.000000	70.777	-166.6459
875.000000	70.881	-166.1000
885.000000	70.962	-165.7061
900.000000	71.086	-165.1689
912.000000	71.187	-164.7921
925.000000	71.297	-164.4358
938.000000	71.405	-164.1272
950.000000	71.503	-163.8793
962.000000	71.599	-163.6634
975.000000	71.700	-163.4654
988.000000	71.798	-163.3008
1000.000000	71.885	-163.1723
1015.000000	71.988	-163.0412
1030.000000	72.086	-162.9395
1044.000000	72.172	-162.8599
1060.000000	72.265	-162.7773
1075.000000	72.348	-162.7060
1090.000000	72.425	-162.6376
1106.000000	72.503	-162.5618
1120.000000	72.566	-162.4895
1138.000000	72.643	-162.3829
1150.000000	72.692	-162.2996
1172.000000	72.778	-162.1221
1180.000000	72.808	-162.0500
1206.000000	72.903	-161.7787
1220.000000	72.952	-161.6061
1241.000000	73.026	-161.3170
1250.000000	73.059	-161.1815
1265.000000	73.114	-160.9372
1280.000000	73.170	-160.6704
1315.000000	73.312	-159.9820
1320.000000	73.334	-159.8776
1340.000000	73.425	-159.4456
1360.000000	73.523	-158.9945
1380.000000	73.629	-158.5361
1400.000000	73.743	-158.0820
1430.000000	73.929	-157.4253
1450.000000	74.062	-157.0147
1475.000000	74.239	-156.5474
1500.000000	74.427	-156.1469
1525.000000	74.624	-155.8208
1550.000000	74.826	-155.5717
1575.000000	75.032	-155.4056
1600.000000	75.240	-155.3258
1625.000000	75.448	-155.3288
1650.000000	75.656	-155.4090
1675.000000	75.862	-155.5619
1700.000000	76.064	-155.7847
1725.000000	76.264	-156.0764
1750.000000	76.459	-156.4367
1775.000000	76.648	-156.8618
1800.000000	76.831	-157.3453
1825.000000	77.006	-157.8826
1850.000000	77.172	-158.4680
1875.000000	77.329	-159.0915
1900.000000	77.477	-159.7410
1925.000000	77.616	-160.4042
1950.000000	77.746	-161.0702
1975.000000	77.868	-161.7326
2000.000000	77.985	-162.3868
2030.000000	78.117	-163.1569
2060.000000	78.245	-163.9088
2090.000000	78.370	-164.6437
2120.000000	78.494	-165.3647
2140.000000	78.576	-165.8405
2180.000000	78.742	-166.7909
2200.000000	78.826	-167.2732
2240.000000	78.998	-168.2729
2270.000000	79.130	-169.0674
2300.000000	79.263	-169.9148
2330.000000	79.395	-170.8264
2360.000000	79.523	-171.8027
2400.000000	79.688	-173.1942
2430.000000	79.807	-174.3047
2470.000000	79.958	-175.8919
2500.000000	80.064	-177.1743
2540.000000	80.189	-179.0101
2580.000000	80.289	179.0261
2620.000000	80.361	176.9705
2650.000000	80.395	175.3892
2690.000000	80.413	173.2455
2720.000000	80.406	171.6276
2760.000000	80.369	169.4839
2800.000000	80.302	167.3754
2850.000000	80.176	164.8184
2900.000000	80.007	162.4050
2950.000000	79.799	160.1858
3000.000000	79.560	158.1922
3040.000000	79.353	156.7708
3070.000000	79.190	155.8070
3110.000000	78.967	154.6538
3150.000000	78.738	153.6437
3200.000000	78.447	152.5740
3250.000000	78.154	151.7206
3300.000000	77.861	151.0924
3350.000000	77.578	150.6858
3400.000000	77.311	150.4621
3450.000000	77.063	150.3671
3500.000000	76.833	150.3748
3550.000000	76.622	150.4727
3600.000000	76.432	150.6287
3650.000000	76.262	150.7993
3700.000000	76.110	150.9579
3750.000000	75.972	151.0960
3820.000000	75.800	151.2285
3870.000000	75.690	151.2541
3950.000000	75.522	151.1602
4000.000000	75.415	151.0382
4060.000000	75.283	150.8734
4120.000000	75.146	150.7414
4180.000000	75.014	150.6796
4250.000000	74.875	150.6664
4310.000000	74.774	150.6371
4370.000000	74.683	150.5640
4440.000000	74.589	150.4408
4500.000000	74.523	150.2957
4550.000000	74.480	150.1334
4620.000000	74.439	149.8262
4680.000000	74.429	149.4457
4750.000000	74.448	148.7566
4820.000000	74.493	147.6652
4870.000000	74.529	146.5723
4940.000000	74.563	144.5537
5000.000000	74.554	142.3765
5080.000000	74.450	138.9267
5150.000000	74.243	135.5726
5220.000000	73.909	132.1489
5300.000000	73.368	128.4849
5380.000000	72.668	125.4373
5450.000000	71.953	123.5206
5520.000000	71.171	122.4548
5600.000000	70.241	122.3645
5700.000000	69.098	123.9160
5800.000000	68.051	127.0934
5900.000000	67.160	131.5378
6000.000000	66.453	136.8653
6080.000000	66.029	141.5240
6150.000000	65.761	145.7506
6220.000000	65.587	150.0125
6300.000000	65.496	154.7944
6400.000000	65.521	160.4451
6500.000000	65.665	165.6243
6600.000000	65.898	170.3782
6700.000000	66.210	174.7920
6800.000000	66.607	178.8909
6900.000000	67.093	-177.3753
7000.000000	67.673	-174.1240
7100.000000	68.345	-171.5307
7200.000000	69.093	-169.8004
7300.000000	69.889	-169.1426
7400.000000	70.685	-169.7211
7500.000000	71.422	-171.5836
7620.000000	72.136	-175.3192
7750.000000	72.607	179.4425
7880.000000	72.729	173.9838
8000.000000	72.580	169.6124
8120.000000	72.276	166.3588
8250.000000	71.897	164.1246
8380.000000	71.557	162.8250
8500.000000	71.305	161.9573
8620.000000	71.089	161.0574
8750.000000	70.848	159.9035
8850.000000	70.632	158.9374
9000.000000	70.235	157.5871
9120.000000	69.857	156.7818
9250.000000	69.402	156.3247
9380.000000	68.918	156.3849
9500.000000	68.467	156.9343
9620.000000	68.033	157.9466
9750.000000	67.604	159.4990
9880.000000	67.235	161.4053
10000.000000	66.955	163.3554
10150.000000	66.693	165.8688
10300.000000	66.523	168.2367
10440.000000	66.431	170.0994
10600.000000	66.359	171.6286
10750.000000	66.264	172.5249
10900.000000	66.103	173.2668
11060.000000	65.881	174.3613
11200.000000	65.703	175.5966
11380.000000	65.540	177.0487
11500.000000	65.454	177.6431
11720.000000	65.246	177.7096
11800.000000	65.129	177.4582
12060.000000	64.520	176.1963
12200.000000	64.032	175.5562
12410.000000	63.089	175.1589
12500.000000	62.612	175.3201
12650.000000	61.731	176.1819
12800.000000	60.753	177.9654
13150.000000	58.228	-172.2635
13200.000000	57.869	-169.9319
13400.000000	56.633	-157.4905
13600.000000	56.040	-141.4149
13800.000000	56.261	-126.6910
14000.000000	56.962	-116.7278
14300.000000	58.106	-108.5910
14500.000000	58.770	-105.2480
14750.000000	59.561	-101.9485
15000.000000	60.428	-99.6256
15250.000000	61.408	-99.1529
15500.000000	62.378	-101.5013
15750.000000	63.094	-106.8690
16000.000000	63.329	-114.2544
16250.000000	62.998	-121.9463
16500.000000	62.164	-128.4443
16750.000000	60.958	-132.8163
17000.000000	59.531	-134.6189
17250.000000	58.037	-133.8203
17500.000000	56.633	-130.7939
17750.000000	55.469	-126.3583
18000.000000	54.673	-121.7135
18250.000000	54.335	-118.2692
18500.000000	54.495	-117.4937
18750.000000	55.097	-120.6572
19000.000000	55.966	-128.4404
19250.000000	56.861	-140.4440
19500.000000	57.567	-154.5939
19750.000000	57.981	-166.7180
